dispers-library 11
library-id "sio2"
table "Thermal SiO2" 9
9 3
183 1.58 0
190.7 1.567 0
198.4 1.554 0
226.7 1.5228 0
275.3 1.4959 0
330.3 1.4805 0
435.8 1.4667 0
667.8 1.4561 0
1133.6 1.4487 0
library-id "sio2-ho" ho "Thermal SiO2 HO" 1 143.747 15.6982 0 0.3333 0
library-id "silicon-1"
table "Silicon"
description "C. M. Herzinger, B. Johs, W. A. McGahan,\nJ. A. Woollam and W. Paulson\nApplied Physics, 83, 6, (1998) 3323-3336"
108
108 3
187.285 0.818733 2.57585
189.58 0.849639 2.61564
195.56 0.925263 2.71895
204.259 1.02985 2.87728
204.934 1.03811 2.89022
218.284 1.22392 3.16679
218.669 1.23022 3.17531
222.196 1.29136 3.25548
222.595 1.29874 3.26494
225.838 1.36865 3.34786
227.079 1.40523 3.38006
229.178 1.48232 3.41943
230.028 1.51503 3.42614
231.748 1.57192 3.42451
233.494 1.609 3.414
235.266 1.62824 3.40832
236.162 1.63372 3.40934
237.975 1.64061 3.4192
243.108 1.65042 3.48977
249.467 1.66213 3.64692
256.168 1.70111 3.90105
259.927 1.75309 4.08496
266.635 1.93675 4.47579
267.787 1.98293 4.54975
268.366 2.00806 4.58775
270.71 2.12485 4.74734
272.495 2.23513 4.87512
273.698 2.32378 4.96229
274.912 2.42697 5.04743
275.523 2.48413 5.0878
277.372 2.67405 5.19346
278.618 2.8098 5.24877
279.246 2.87854 5.27259
279.876 2.94745 5.29477
281.785 3.15855 5.3586
283.071 3.31178 5.40187
283.719 3.39536 5.42239
285.023 3.57982 5.45481
285.68 3.68072 5.46347
287.669 4.00803 5.4413
289.685 4.33878 5.33031
291.045 4.53767 5.20936
293.109 4.77861 4.98052
293.804 4.84167 4.89756
295.203 4.94283 4.72988
297.327 5.04107 4.48867
299.481 5.09243 4.27318
300.935 5.10961 4.14643
302.403 5.11819 4.03296
304.632 5.12173 3.88522
306.894 5.12032 3.76025
310.74 5.11744 3.59046
314.683 5.12084 3.45501
315.484 5.12258 3.43098
322.878 5.15495 3.24643
328.873 5.19926 3.13179
335.095 5.2603 3.03919
336.003 5.27071 3.02796
343.449 5.37746 2.96
344.403 5.39482 2.95463
345.363 5.4134 2.95007
348.273 5.478 2.94186
349.254 5.5032 2.94122
350.241 5.53073 2.94179
353.234 5.63245 2.95144
354.243 5.67518 2.95715
356.279 5.78014 2.97008
357.306 5.84491 2.97528
358.339 5.9195 2.97738
360.422 6.10081 2.96152
361.473 6.20683 2.93684
362.53 6.32068 2.89622
364.662 6.55679 2.75584
366.82 6.77021 2.53094
369.004 6.92093 2.2381
370.105 6.96472 2.07733
372.328 6.98703 1.75289
374.578 6.93504 1.45204
375.713 6.88849 1.31681
376.855 6.83229 1.19301
379.16 6.70104 0.979455
381.493 6.55704 0.807395
385.047 6.33746 0.613718
386.247 6.26613 0.56338
389.891 6.06356 0.445891
392.358 5.94029 0.389742
393.604 5.88253 0.366762
394.857 5.82738 0.346562
398.666 5.6771 0.298673
403.861 5.50771 0.253021
411.911 5.30053 0.201144
417.459 5.18246 0.17218
424.607 5.05011 0.141138
435.036 4.88652 0.106546
447.6 4.72413 0.0779814
462.631 4.56712 0.0569029
475.039 4.46102 0.0464451
497.933 4.30645 0.0359811
499.94 4.29493 0.0353747
541.42 4.10704 0.0266559
579.37 3.98993 0.0208614
626.188 3.88595 0.0152397
670.19 3.81372 0.0112013
729.325 3.74145 0.00722466
855.07 3.64238 0.00243464
898.443 3.61873 0.00153938
999.881 3.57624 0.00036995
1008.01 3.57344 0.00031878
library-id "vacuum" cauchy "vacuum" 1 0 0 0 0 0
library-id "water" cauchy "water" 1.3197 4677.31 -1.0802e+08 0 0 0
library-id "nitride-1" ho "Nitride Furnace HO"
  description "Thermal Nitride"
  range 190 800
  3
  212.604 15.0338 0 0.333333 0
  13.4987 7.07992 1.1939 0.333333 -0.0954849
  6.55542 6.87477 0.840153 0.333333 9.42958
library-id "nitride-2" ho "Nitride PECVD HO"
  description "PECVD Nitride"
  range 240 780
  2
  199.662 14.0451 0 0.333333 0
  1.37061 6.35081 1.17056 0.333333 -0.240491
library-id "poly-1"
lookup "Poly Lookup"
  description "Amorphous and Polycrystalline Silicon\nSTMicroelectronics Agrate"
  range 240 780
  5 0.5
  -0.37 ho "Amorphized Si" 3
  185.114 9.81605 3.64939 0.3333 -0.0481967
  1.77917 1.78814 8.92816 0.333333 -4.45386
  0.440395 3.68609 3.32399 0.333333 0.519478
  0 ho "Amorphous Si" 3
  202.183 10.4164 2.79898 0.3333 0.0258179
  3.40699 3.18043 4.71249 0.333333 -3.4929
  1.77478 2.82247 3.60495 0.333333 -0.78607
  0.59 ho "Poly undoped" 4
  185.485 10.197 2.4069 0.3333 0.0241909
  0.0732711 3.38906 0.639311 0.333333 -2.16342
  0.833464 4.57835 1.49616 0.333333 -2.55552
  0.620684 3.1444 2.37633 0.333333 -8.50427
  1 ho "Poly As-doped" 4
  190.918 10.6013 1.75314 0.3333 0.0737385
  0.0821055 3.3999 0.461649 0.333333 -1.47956
  4.7213 4.59819 1.99146 0.333333 -2.0836
  1.91872 4.10325 1.55453 0.333333 0.391491
  1.4 library "silicon-1"
library-id "copper-1"
table "Copper"
description "Ellipsometry caracterization after CMP polishing\nNH3 surface treatment and dielectric deposition.\nSTMicroelectronics Crolles"
44
44 3
190 0.999992 1.73575
192 1.0028 1.77888
200 1.03155 1.94024
213 1.14569 2.15873
214 1.15806 2.17265
230 1.40837 2.30878
233 1.46002 2.31228
246 1.64918 2.2494
258 1.72964 2.13199
270 1.72523 2.02897
274 1.71195 2.00355
281 1.68054 1.9694
282 1.67536 1.96541
292 1.60851 1.93471
294 1.58925 1.9325
299 1.53606 1.94774
301 1.51973 1.96269
307 1.49801 2.0062
315 1.48275 2.0414
332 1.43943 2.10669
358 1.37308 2.22362
391 1.29552 2.39608
392 1.29332 2.40171
452 1.20091 2.76374
478 1.1948 2.90531
508 1.19366 3.00086
533 1.11893 2.99542
534 1.1126 2.99423
535 1.10593 2.99306
536 1.09893 2.99193
537 1.09158 2.99084
538 1.08387 2.98982
539 1.07582 2.98888
540 1.06741 2.98804
541 1.05864 2.98732
561 0.818195 3.02743
576 0.609716 3.1636
596 0.408512 3.45179
611 0.328495 3.68607
646 0.269872 4.17525
701 0.276767 4.79327
800 0.299092 5.72387
929 0.295104 6.82921
980 0.285194 7.25162
library-id "copper-2"
table "Copper Babar"
description "S. Babar and J. H. Weaver\nOptical constants of Cu, Ag, and Au revisited\nAppl. Opt. 54, 477-481 (2015)"
39
39 3
206.6 1.02  1.597
210.1 1.054 1.656
217.5 1.133 1.739
238.4 1.388 1.851
243.1 1.439 1.844
248 1.489 1.84
253 1.546 1.814
258.3 1.573 1.77
281.8 1.54  1.662
295.2 1.458 1.66
302.4 1.422 1.698
310 1.404 1.735
326.3 1.375 1.814
344.4 1.369 1.874
375.7 1.292 1.985
387.5 1.276 2.037
399.9 1.239 2.078
413.3 1.198 2.158
427.5 1.186 2.238
442.8 1.168 2.299
476.9 1.131 2.445
495.9 1.121 2.485
516.6 1.089 2.501
539.1 0.9717  2.413
563.6 0.5166  2.41
590.4 0.1268  2.918
619.9 0.09461 3.382
652.5 0.0878  3.759
688.8 0.07277 4.123
826.6 0.06248 5.361
885.6 0.06666 5.85
1378  0.1465  9.66
1771  0.2439  12.59
2755  0.5934  19.78
4133  1.334 29.73
4959  1.924 35.62
6199  2.973 44.34
8266  5.134 58.62
12400 11.18 85.47
library-id "aluminium-1"
table "Aluminium"
description "K. M. McPeak et al.\nACS Photonics 2, 326-333 (2015)"
143
143 3
150 0.0953908 1.28367
155 0.0955104 1.33739
160 0.0990392 1.40293
170 0.10085 1.53257
175 0.106956  1.59654
180 0.0997157 1.65766
185 0.108316  1.73437
190 0.106568  1.79116
195 0.111513  1.85341
200 0.110803  1.90861
215 0.115928  2.09185
225 0.119772  2.21304
235 0.129277  2.33677
250 0.141163  2.51522
270 0.164611  2.75004
295 0.197315  3.04234
335 0.259392  3.49375
370 0.317598  3.8892
460 0.514817  4.88795
535 0.737604  5.69377
605 1.01607 6.41735
640 1.19027 6.75942
645 1.21851 6.80711
665 1.33385 6.98764
700 1.55975 7.27391
730 1.7864  7.47537
745 1.9168  7.55216
750 1.95836 7.5714
765 2.09984 7.60509
780 2.2315  7.60385
790 2.31464 7.57222
795 2.35026 7.54789
800 2.37365 7.52258
805 2.39944 7.48654
810 2.4093  7.44948
820 2.41005 7.36935
825 2.39946 7.3256
835 2.3421  7.2531
845 2.25766 7.20437
850 2.2049  7.18809
875 1.91549 7.21825
900 1.64716 7.39305
915 1.51684 7.54267
925 1.44723 7.64771
940 1.35559 7.81247
970 1.21819 8.16376
990 1.1537  8.39952
1015  1.09358 8.68752
1020  1.08728 8.74844
1025  1.08145 8.80997
1035  1.06154 8.92008
1040  1.05549 8.97826
1045  1.05181 9.03683
1050  1.04345 9.08377
1055  1.03648 9.14873
1060  1.03313 9.20404
1065  1.02748 9.26443
1075  1.02442 9.37312
1090  1.01438 9.53687
1095  1.01189 9.59343
1100  1.00991 9.64992
1115  1.00382 9.806
1120  1.00429 9.86015
1130  1.00397 9.9684
1140  1.00283 10.075
1150  1.00532 10.1834
1165  1.00793 10.3415
1170  1.00836 10.3922
1175  1.01269 10.442
1190  1.01768 10.6055
1200  1.02174 10.7058
1205  1.02286 10.7581
1220  1.02974 10.911
1230  1.03867 11.0127
1235  1.03998 11.0685
1240  1.04339 11.1157
1245  1.04666 11.1698
1250  1.04991 11.2162
1255  1.0513  11.2666
1260  1.0565  11.3162
1270  1.06149 11.4108
1275  1.06638 11.4729
1285  1.07308 11.5625
1290  1.07809 11.6178
1300  1.08668 11.7197
1305  1.09091 11.7737
1315  1.09711 11.8644
1320  1.10443 11.9193
1330  1.10928 12.0154
1345  1.12923 12.1653
1350  1.13298 12.2178
1430  1.20898 12.992
1440  1.22236 13.0898
1445  1.22564 13.1344
1450  1.23235 13.1935
1455  1.23505 13.2342
1465  1.24567 13.3297
1470  1.2559  13.3752
1475  1.25242 13.4212
1480  1.26515 13.4652
1485  1.26479 13.5196
1490  1.27502 13.5652
1495  1.27769 13.6152
1500  1.2857  13.6603
1505  1.29015 13.7096
1510  1.29681 13.7576
1515  1.30406 13.8138
1520  1.31392 13.8577
1525  1.31628 13.9055
1535  1.33257 13.9956
1540  1.3381  14.0464
1545  1.34232 14.0891
1550  1.3474  14.1328
1555  1.35429 14.1861
1560  1.36163 14.23
1565  1.36795 14.272
1570  1.37488 14.3321
1575  1.37495 14.3733
1580  1.38566 14.4187
1585  1.39043 14.4715
1590  1.40017 14.5197
1595  1.39786 14.5665
1600  1.40098 14.6087
1605  1.40293 14.6529
1610  1.42141 14.7065
1615  1.42474 14.7564
1620  1.436 14.821
1625  1.43936 14.8486
1630  1.44609 14.8957
1635  1.4479  14.9471
1640  1.45644 14.9917
1645  1.45887 15.0239
1650  1.46992 15.0818
1655  1.47818 15.1223
1660  1.47498 15.1758
1665  1.47784 15.2323
1670  1.46229 15.2774
1675  1.42578 15.3474
1680  1.42734 15.3895
1685  1.45491 15.4725
1690  1.51418 15.4962
1695  1.55567 15.5335
1700  1.58402 15.5563
